z (nm)	PRZ(pz) Gen	PRZ(pz) Emi	
5.44624	1.60598	1.60211	
16.3387	1.75899	1.74827	
27.2312	1.88816	1.86914	
38.1237	1.9785	1.95068	
49.0161	2.06045	2.02332	
59.9086	2.15744	2.10999	
70.8011	2.25253	2.1941	
81.6935	2.31523	2.24609	
92.586	2.38243	2.30199	
103.478	2.37036	2.28106	
114.371	2.34653	2.24906	
125.263	2.31885	2.21355	
136.156	2.33076	2.21596	
147.048	2.29443	2.1726	
157.941	2.2959	2.16522	
168.833	2.25242	2.11567	
179.726	2.22435	2.08085	
190.618	2.17755	2.02889	
201.511	2.10551	1.95384	
212.403	2.03813	1.88371	
223.296	1.97332	1.81641	
234.188	1.93451	1.77351	
245.081	1.84247	1.68235	
255.973	1.75718	1.59798	
266.866	1.68405	1.52531	
277.758	1.59142	1.4356	
288.651	1.51846	1.36425	
299.543	1.45758	1.30429	
310.435	1.35259	1.20543	
321.328	1.31269	1.16517	
332.22	1.20585	1.06603	
343.113	1.14095	1.00457	
354.005	1.07038	0.938641	
364.898	1.01925	0.890188	
375.79	0.980755	0.853127	
386.683	0.901511	0.781034	
397.575	0.852332	0.735449	
408.468	0.765633	0.657964	
419.36	0.702729	0.601474	
430.253	0.660913	0.563408	
441.145	0.601905	0.511026	
452.038	0.559822	0.473378	
462.93	0.515915	0.434492	
473.823	0.482355	0.404606	
484.715	0.433581	0.362219	
495.608	0.387571	0.322476	
506.5	0.348541	0.288831	
517.392	0.314543	0.259614	
528.285	0.272785	0.224235	
539.177	0.240563	0.196949	
550.07	0.213552	0.174132	
560.962	0.186775	0.151682	
571.855	0.154852	0.125251	
582.747	0.134521	0.108369	
593.64	0.11923	0.0956631	
604.532	0.107007	0.0855141	
615.425	0.0903697	0.0719222	
626.317	0.0809269	0.0641477	
637.21	0.0630398	0.0497689	
648.102	0.0545125	0.0428626	
658.995	0.0434392	0.0340187	
669.887	0.0384526	0.0299917	
680.78	0.0296617	0.0230422	
691.672	0.0251197	0.0194339	
702.565	0.0220483	0.0169897	
713.457	0.0170678	0.0130992	
724.349	0.0130539	0.0099776	
735.242	0.00816818	0.00621824	
746.134	0.00637504	0.00483419	
757.027	0.00447915	0.00338238	
767.919	0.00350254	0.00263461	
778.812	0.00273709	0.0020503	
789.704	0.00178241	0.00132986	
800.597	0.00144389	0.00107295	
811.489	0.000906964	0.000671202	
822.382	0.000762215	0.000561882	
833.274	0.000171382	0.000125794	
844.167	0.000176913	0.000129386	
855.059	3.45117e-05	2.51344e-05	
865.952	2.09077e-05	1.51654e-05	
876.844	5.82374e-06	4.21257e-06	
887.737	0	0	
898.629	0	0	
909.522	0	0	
920.414	0	0	
931.306	0	0	
942.199	0	0	
953.091	0	0	
963.984	0	0	
974.876	0	0	
985.769	0	0	
996.661	0	0	
1007.55	0	0	
1018.45	0	0	
1029.34	0	0	
1040.23	0	0	
1051.12	0	0	
1062.02	0	0	
1072.91	0	0	
