z (nm)	PRZ(pz) Gen	PRZ(pz) Emi	
3.40318	1.72185	1.71635	
10.2096	1.88672	1.87147	
17.0159	2.03636	2.00918	
23.8223	2.16473	2.12444	
30.6287	2.249	2.19536	
37.435	2.36834	2.29949	
44.2414	2.40589	2.32347	
51.0478	2.46954	2.37214	
57.8541	2.52359	2.41113	
64.6605	2.46513	2.34269	
71.4669	2.44388	2.31005	
78.2732	2.44765	2.30125	
85.0796	2.43343	2.27566	
91.886	2.43554	2.26544	
98.6924	2.39192	2.21294	
105.499	2.35109	2.16355	
112.305	2.30436	2.10926	
119.111	2.23721	2.0368	
125.918	2.15835	1.95452	
132.724	2.08388	1.87699	
139.531	1.9887	1.78166	
146.337	1.91721	1.70843	
153.143	1.82402	1.61668	
159.95	1.77481	1.56464	
166.756	1.70861	1.49824	
173.562	1.60891	1.40328	
180.369	1.54511	1.34038	
187.175	1.46317	1.26253	
193.982	1.39766	1.19957	
200.788	1.30547	1.11443	
207.594	1.23749	1.05078	
214.401	1.15042	0.971614	
221.207	1.08262	0.909454	
228.013	1.00168	0.836948	
234.82	0.951283	0.790598	
241.626	0.898015	0.742339	
248.432	0.837889	0.68894	
255.239	0.767721	0.62786	
262.045	0.748349	0.608745	
268.852	0.672118	0.543811	
275.658	0.618186	0.497488	
282.464	0.577951	0.462623	
289.271	0.544775	0.433734	
296.077	0.508175	0.402428	
302.883	0.461384	0.363429	
309.69	0.410013	0.321234	
316.496	0.379361	0.295627	
323.303	0.34219	0.265238	
330.109	0.306611	0.23639	
336.915	0.277629	0.212907	
343.722	0.237405	0.181084	
350.528	0.206429	0.156612	
357.334	0.185933	0.140308	
364.141	0.158537	0.118994	
370.947	0.14523	0.108423	
377.753	0.121678	0.0903562	
384.56	0.108999	0.0805071	
391.366	0.0892092	0.0655364	
398.173	0.0780719	0.0570485	
404.979	0.0649322	0.047193	
411.785	0.0536094	0.0387549	
418.592	0.0433697	0.0311845	
425.398	0.0369014	0.0263925	
432.204	0.0313569	0.0223067	
439.011	0.0241157	0.0170659	
445.817	0.017945	0.0126293	
452.624	0.0163345	0.0114342	
459.43	0.0112083	0.00780372	
466.236	0.0095245	0.00659751	
473.043	0.00799852	0.00550973	
479.849	0.00517159	0.00354404	
486.655	0.00381732	0.00260201	
493.462	0.00294539	0.0019966	
500.268	0.00203854	0.00137479	
507.075	0.00166273	0.00111542	
513.881	0.00152117	0.00101442	
520.687	0.00153097	0.00101566	
527.494	0.00059542	0.000393187	
534.3	0.000110206	7.23474e-05	
541.106	8.45284e-05	5.51639e-05	
547.913	8.43676e-05	5.4804e-05	
554.719	0.000118452	7.64703e-05	
561.525	0.000113351	7.28379e-05	
568.332	0	0	
575.138	0	0	
581.945	0	0	
588.751	0	0	
595.557	0	0	
602.364	0	0	
609.17	0	0	
615.976	0	0	
622.783	0	0	
629.589	0	0	
636.396	0	0	
643.202	0	0	
650.008	0	0	
656.815	0	0	
663.621	0	0	
670.427	0	0	
