z (nm)	PRZ(pz) Gen	PRZ(pz) Emi	
3.40318	1.72185	1.71448	
10.2096	1.88672	1.86627	
17.0159	2.03636	1.99996	
23.8223	2.16473	2.11081	
30.6287	2.249	2.17728	
37.435	2.36834	2.27637	
44.2414	2.40589	2.29588	
51.0478	2.46954	2.33966	
57.8541	2.52359	2.37376	
64.6605	2.46513	2.30215	
71.4669	2.44388	2.2659	
78.2732	2.44765	2.25312	
85.0796	2.43343	2.22399	
91.886	2.43554	2.20993	
98.6924	2.39192	2.15475	
105.499	2.35109	2.10278	
112.305	2.30436	2.04628	
119.111	2.23721	1.97234	
125.918	2.15835	1.8892	
132.724	2.08388	1.81092	
139.531	1.9887	1.71579	
146.337	1.91721	1.64225	
153.143	1.82402	1.55119	
159.95	1.77481	1.4985	
166.756	1.70861	1.43228	
173.562	1.60891	1.33904	
180.369	1.54511	1.27666	
187.175	1.46317	1.20031	
193.982	1.39766	1.13836	
200.788	1.30547	1.05562	
207.594	1.23749	0.993512	
214.401	1.15042	0.916968	
221.207	1.08262	0.856727	
228.013	1.00168	0.786973	
234.82	0.951283	0.742029	
241.626	0.898015	0.695456	
248.432	0.837889	0.644247	
255.239	0.767721	0.586048	
262.045	0.748349	0.567164	
268.852	0.672118	0.505735	
275.658	0.618186	0.461803	
282.464	0.577951	0.42865	
289.271	0.544775	0.401144	
296.077	0.508175	0.371507	
302.883	0.461384	0.334891	
309.69	0.410013	0.295465	
316.496	0.379361	0.271412	
323.303	0.34219	0.243067	
330.109	0.306611	0.216233	
336.915	0.277629	0.194397	
343.722	0.237405	0.165036	
350.528	0.206429	0.142469	
357.334	0.185933	0.127404	
364.141	0.158537	0.107852	
370.947	0.14523	0.0980903	
377.753	0.121678	0.0815953	
384.56	0.108999	0.0725676	
391.366	0.0892092	0.0589643	
398.173	0.0780719	0.0512336	
404.979	0.0649322	0.0423047	
411.785	0.0536094	0.0346768	
418.592	0.0433697	0.0278517	
425.398	0.0369014	0.0235288	
432.204	0.0313569	0.0198497	
439.011	0.0241157	0.0151589	
445.817	0.017945	0.0111969	
452.624	0.0163345	0.0101187	
459.43	0.0112083	0.00689319	
466.236	0.0095245	0.0058175	
473.043	0.00799852	0.00484907	
479.849	0.00517159	0.00311356	
486.655	0.00381732	0.00228176	
493.462	0.00294539	0.00174754	
500.268	0.00203854	0.00120119	
507.075	0.00166273	0.000972799	
513.881	0.00152117	0.000882919	
520.687	0.00153097	0.000882421	
527.494	0.00059542	0.000341068	
534.3	0.000110206	6.26308e-05	
541.106	8.45284e-05	4.76586e-05	
547.913	8.43676e-05	4.72724e-05	
554.719	0.000118452	6.58214e-05	
561.525	0.000113351	6.25951e-05	
568.332	0	0	
575.138	0	0	
581.945	0	0	
588.751	0	0	
595.557	0	0	
602.364	0	0	
609.17	0	0	
615.976	0	0	
622.783	0	0	
629.589	0	0	
636.396	0	0	
643.202	0	0	
650.008	0	0	
656.815	0	0	
663.621	0	0	
670.427	0	0	
