z (nm)	PRZ(pz) Gen	PRZ(pz) Emi	
3.40318	1.7271	1.72105	
10.2096	1.89331	1.87652	
17.0159	2.04412	2.01421	
23.8223	2.17348	2.12913	
30.6287	2.25857	2.19953	
37.435	2.37906	2.30328	
44.2414	2.41752	2.32678	
51.0478	2.4823	2.37508	
57.8541	2.5371	2.41331	
64.6605	2.47905	2.34426	
71.4669	2.45813	2.31082	
78.2732	2.46314	2.30195	
85.0796	2.44932	2.27563	
91.886	2.45212	2.26484	
98.6924	2.40926	2.21218	
105.499	2.36898	2.16243	
112.305	2.32273	2.10784	
119.111	2.25573	2.03499	
125.918	2.17701	1.95247	
132.724	2.10259	1.87466	
139.531	2.007	1.77891	
146.337	1.93547	1.70545	
153.143	1.84251	1.614	
159.95	1.7935	1.56184	
166.756	1.72698	1.49511	
173.562	1.62658	1.39993	
180.369	1.56283	1.33713	
187.175	1.48041	1.2592	
193.982	1.41468	1.19624	
200.788	1.32202	1.11131	
207.594	1.25374	1.04776	
214.401	1.16638	0.969025	
221.207	1.09809	0.906931	
228.013	1.01666	0.834734	
234.82	0.965921	0.788433	
241.626	0.912148	0.740176	
248.432	0.851463	0.686886	
255.239	0.780398	0.625853	
262.045	0.761215	0.606889	
268.852	0.684366	0.542419	
275.658	0.629702	0.496153	
282.464	0.588931	0.461307	
289.271	0.555348	0.432448	
296.077	0.518604	0.401464	
302.883	0.471251	0.362676	
309.69	0.419227	0.320742	
316.496	0.38801	0.295114	
323.303	0.350523	0.265043	
330.109	0.314553	0.23645	
336.915	0.284929	0.212931	
343.722	0.243757	0.181092	
350.528	0.212156	0.156687	
357.334	0.19141	0.140536	
364.141	0.163363	0.119239	
370.947	0.149753	0.108664	
377.753	0.125767	0.090725	
384.56	0.112774	0.0808744	
391.366	0.0924095	0.0658796	
398.173	0.081086	0.0574686	
404.979	0.0674304	0.0475097	
411.785	0.0557577	0.0390547	
418.592	0.045145	0.0314351	
425.398	0.0385222	0.0266673	
432.204	0.0327701	0.0225518	
439.011	0.0253133	0.0173204	
445.817	0.0188163	0.0127973	
452.624	0.0171872	0.0116205	
459.43	0.0118346	0.0079544	
466.236	0.0100787	0.00673624	
473.043	0.00842777	0.00559854	
479.849	0.00549565	0.00363007	
486.655	0.00409739	0.0026906	
493.462	0.00316015	0.00206262	
500.268	0.00217236	0.0014099	
507.075	0.00178648	0.00115273	
513.881	0.00165051	0.00105811	
520.687	0.00166339	0.00106029	
527.494	0.000661467	0.00041949	
534.3	0.000129372	8.15206e-05	
541.106	8.99457e-05	5.63138e-05	
547.913	9.00828e-05	5.61068e-05	
554.719	0.000131291	8.12247e-05	
561.525	0.000127273	7.8338e-05	
568.332	0	0	
575.138	0	0	
581.945	0	0	
588.751	0	0	
595.557	0	0	
602.364	0	0	
609.17	0	0	
615.976	0	0	
622.783	0	0	
629.589	0	0	
636.396	0	0	
643.202	0	0	
650.008	0	0	
656.815	0	0	
663.621	0	0	
670.427	0	0	
