z (nm)	PRZ(pz) Gen	PRZ(pz) Emi	
3.40318	1.7271	1.72196	
10.2096	1.89331	1.87905	
17.0159	2.04412	2.01871	
23.8223	2.17348	2.13578	
30.6287	2.25857	2.20837	
37.435	2.37906	2.3146	
44.2414	2.41752	2.3403	
51.0478	2.4823	2.39101	
57.8541	2.5371	2.43166	
64.6605	2.47905	2.36418	
71.4669	2.45813	2.33254	
78.2732	2.46314	2.32565	
85.0796	2.44932	2.30111	
91.886	2.45212	2.29225	
98.6924	2.40926	2.24095	
105.499	2.36898	2.19251	
112.305	2.32273	2.13905	
119.111	2.25573	2.06696	
125.918	2.17701	1.98491	
132.724	2.10259	1.90751	
139.531	2.007	1.8117	
146.337	1.93547	1.73844	
153.143	1.84251	1.64668	
159.95	1.7935	1.59489	
166.756	1.72698	1.5281	
173.562	1.62658	1.4321	
180.369	1.56283	1.36908	
187.175	1.48041	1.29043	
193.982	1.41468	1.227	
200.788	1.32202	1.14091	
207.594	1.25374	1.07662	
214.401	1.16638	0.996606	
221.207	1.09809	0.933577	
228.013	1.01666	0.860027	
234.82	0.965921	0.813046	
241.626	0.912148	0.763961	
248.432	0.851463	0.70959	
255.239	0.780398	0.647118	
262.045	0.761215	0.628068	
268.852	0.684366	0.561848	
275.658	0.629702	0.514385	
282.464	0.588931	0.478685	
289.271	0.555348	0.449139	
296.077	0.518604	0.417331	
302.883	0.471251	0.377345	
309.69	0.419227	0.334012	
316.496	0.38801	0.307599	
323.303	0.350523	0.2765	
330.109	0.314553	0.246892	
336.915	0.284929	0.222531	
343.722	0.243757	0.189425	
350.528	0.212156	0.164044	
357.334	0.19141	0.147265	
364.141	0.163363	0.12506	
370.947	0.149753	0.114071	
377.753	0.125767	0.0953239	
384.56	0.112774	0.0850497	
391.366	0.0924095	0.0693429	
398.173	0.081086	0.0605435	
404.979	0.0674304	0.0500963	
411.785	0.0557577	0.0412177	
418.592	0.045145	0.0332058	
425.398	0.0385222	0.0281943	
432.204	0.0327701	0.0238645	
439.011	0.0253133	0.0183446	
445.817	0.0188163	0.0135664	
452.624	0.0171872	0.0123299	
459.43	0.0118346	0.00844755	
466.236	0.0100787	0.00715997	
473.043	0.00842777	0.0059562	
479.849	0.00549565	0.00386529	
486.655	0.00409739	0.0028675	
493.462	0.00316015	0.00220025	
500.268	0.00217236	0.00150526	
507.075	0.00178648	0.00123179	
513.881	0.00165051	0.00113179	
520.687	0.00166339	0.0011351	
527.494	0.000661467	0.000449435	
534.3	0.000129372	8.74247e-05	
541.106	8.99457e-05	6.04511e-05	
547.913	9.00828e-05	6.02764e-05	
554.719	0.000131291	8.73499e-05	
561.525	0.000127273	8.43106e-05	
568.332	0	0	
575.138	0	0	
581.945	0	0	
588.751	0	0	
595.557	0	0	
602.364	0	0	
609.17	0	0	
615.976	0	0	
622.783	0	0	
629.589	0	0	
636.396	0	0	
643.202	0	0	
650.008	0	0	
656.815	0	0	
663.621	0	0	
670.427	0	0	
