z (nm)	PRZ(pz) Gen	PRZ(pz) Emi	
4.01377	1.74597	1.74002	
12.0413	1.96369	1.94614	
20.0689	2.13376	2.10222	
28.0964	2.27597	2.22907	
36.1239	2.35782	2.29559	
44.1515	2.4413	2.36274	
52.179	2.50107	2.40629	
60.2066	2.48811	2.37963	
68.2341	2.48686	2.36431	
76.2617	2.49835	2.36121	
84.2892	2.48262	2.33237	
92.3167	2.4519	2.28995	
100.344	2.34481	2.17696	
108.372	2.26409	2.08956	
116.399	2.25006	2.06426	
124.427	2.19874	2.00522	
132.454	2.09806	1.90213	
140.482	1.97961	1.78406	
148.51	1.90787	1.70922	
156.537	1.79196	1.5959	
164.565	1.72711	1.52898	
172.592	1.65715	1.45835	
180.62	1.5428	1.34972	
188.647	1.44327	1.25512	
196.675	1.34888	1.1661	
204.702	1.28653	1.10558	
212.73	1.19706	1.02265	
220.757	1.08927	0.925025	
228.785	1.03506	0.873768	
236.812	0.939619	0.788517	
244.84	0.882953	0.73653	
252.868	0.819519	0.67961	
260.895	0.726293	0.598726	
268.923	0.658601	0.539695	
276.95	0.60131	0.489834	
284.978	0.525114	0.425227	
293.005	0.481315	0.387447	
301.033	0.438228	0.350674	
309.06	0.392929	0.312565	
317.088	0.348304	0.275423	
325.115	0.312956	0.246007	
333.143	0.277151	0.216577	
341.171	0.231022	0.179451	
349.198	0.197807	0.152746	
357.226	0.166455	0.127771	
365.253	0.145953	0.111365	
373.281	0.124484	0.0944277	
381.308	0.103096	0.0777384	
389.336	0.0919096	0.068891	
397.363	0.0776575	0.0578668	
405.391	0.0596114	0.0441541	
413.418	0.0502771	0.0370227	
421.446	0.0397788	0.029119	
429.474	0.0327731	0.0238473	
437.501	0.0269417	0.0194881	
445.529	0.0224302	0.0161274	
453.556	0.0145296	0.0103843	
461.584	0.00942161	0.00669519	
469.611	0.008129	0.00574284	
477.639	0.00670791	0.00470974	
485.666	0.00535809	0.00374004	
493.694	0.00296222	0.00205524	
501.721	0.00272659	0.00188043	
509.749	0.00221778	0.00152043	
517.776	0.00165335	0.00112731	
525.804	0.0016383	0.00110932	
533.832	0.000568179	0.000382751	
541.859	0.0002774	0.000185736	
549.887	0.000145089	9.65897e-05	
557.914	7.61832e-05	5.03979e-05	
565.942	5.65545e-05	3.71993e-05	
573.969	2.63241e-05	1.7214e-05	
581.997	7.12614e-06	4.64353e-06	
590.024	0	0	
598.052	0	0	
606.079	0	0	
614.107	0	0	
622.135	0	0	
630.162	0	0	
638.19	0	0	
646.217	0	0	
654.245	0	0	
662.272	0	0	
670.3	0	0	
678.327	0	0	
686.355	0	0	
694.382	0	0	
702.41	0	0	
710.437	0	0	
718.465	0	0	
726.493	0	0	
734.52	0	0	
742.548	0	0	
750.575	0	0	
758.603	0	0	
766.63	0	0	
774.658	0	0	
782.685	0	0	
790.713	0	0	
