z (nm)	PRZ(pz) Gen	PRZ(pz) Emi	
4.33708	1.7263	1.72047	
13.0112	1.96393	1.94636	
21.6854	2.13286	2.10136	
30.3596	2.25984	2.21326	
39.0337	2.38291	2.31999	
47.7079	2.41991	2.34205	
56.3821	2.4519	2.35894	
65.0562	2.533	2.42251	
73.7304	2.5181	2.39409	
82.4045	2.53278	2.39373	
91.0787	2.47221	2.32265	
99.7529	2.41516	2.25559	
108.427	2.29198	2.12788	
117.101	2.23749	2.06495	
125.775	2.13576	1.95943	
134.45	2.09638	1.91187	
143.124	1.97981	1.79486	
151.798	1.9123	1.72341	
160.472	1.8038	1.61599	
169.146	1.6989	1.51301	
177.82	1.57921	1.39808	
186.494	1.46746	1.29145	
195.169	1.35175	1.18257	
203.843	1.27002	1.10447	
212.517	1.18476	1.0242	
221.191	1.07969	0.927837	
229.865	1.00674	0.86004	
238.539	0.940936	0.799054	
247.214	0.861907	0.727596	
255.888	0.791071	0.663849	
264.562	0.717831	0.598829	
273.236	0.652172	0.540824	
281.91	0.584974	0.482227	
290.584	0.536113	0.439306	
299.259	0.47577	0.387568	
307.933	0.420012	0.340124	
316.607	0.362071	0.291471	
325.281	0.313939	0.251217	
333.955	0.273114	0.217254	
342.629	0.236598	0.187088	
351.304	0.2052	0.161296	
359.978	0.180001	0.140654	
368.652	0.16532	0.128425	
377.326	0.132647	0.102432	
386	0.11218	0.0861086	
394.674	0.0890956	0.0679872	
403.349	0.0655616	0.0497376	
412.023	0.0537346	0.0405161	
420.697	0.0483882	0.0362698	
429.371	0.0394818	0.0294196	
438.045	0.0282411	0.0209219	
446.719	0.0167891	0.0123636	
455.393	0.0137658	0.010077	
464.068	0.0104928	0.00763526	
472.742	0.0069288	0.0050133	
481.416	0.0043358	0.00311782	
490.09	0.00428061	0.00305979	
498.764	0.0031357	0.00222834	
507.438	0.00169397	0.00119667	
516.113	0.00113223	0.000795436	
524.787	0.000541776	0.000378174	
533.461	0.000420722	0.000291993	
542.135	0.000331175	0.000228206	
550.809	0.000130537	8.95989e-05	
559.483	1.41884e-05	9.69444e-06	
568.158	0	0	
576.832	0	0	
585.506	0	0	
594.18	0	0	
602.854	0	0	
611.528	0	0	
620.203	0	0	
628.877	0	0	
637.551	0	0	
646.225	0	0	
654.899	0	0	
663.573	0	0	
672.248	0	0	
680.922	0	0	
689.596	0	0	
698.27	0	0	
706.944	0	0	
715.618	0	0	
724.292	0	0	
732.967	0	0	
741.641	0	0	
750.315	0	0	
758.989	0	0	
767.663	0	0	
776.337	0	0	
785.012	0	0	
793.686	0	0	
802.36	0	0	
811.034	0	0	
819.708	0	0	
828.382	0	0	
837.057	0	0	
845.731	0	0	
854.405	0	0	
