z (nm)	PRZ(pz) Gen	PRZ(pz) Emi	
3.40318	1.72185	1.71572	
10.2096	1.88672	1.86971	
17.0159	2.03636	2.00607	
23.8223	2.16473	2.11983	
30.6287	2.249	2.18925	
37.435	2.36834	2.29167	
44.2414	2.40589	2.31413	
51.0478	2.46954	2.36114	
57.8541	2.52359	2.39847	
64.6605	2.46513	2.32894	
71.4669	2.44388	2.29507	
78.2732	2.44765	2.28491	
85.0796	2.43343	2.25811	
91.886	2.43554	2.24657	
98.6924	2.39192	2.19315	
105.499	2.35109	2.14287	
112.305	2.30436	2.08781	
119.111	2.23721	2.01484	
125.918	2.15835	1.93225	
132.724	2.08388	1.85445	
139.531	1.9887	1.75918	
146.337	1.91721	1.68583	
153.143	1.82402	1.5943	
159.95	1.77481	1.54202	
166.756	1.70861	1.47567	
173.562	1.60891	1.38129	
180.369	1.54511	1.31855	
187.175	1.46317	1.24121	
193.982	1.39766	1.17857	
200.788	1.30547	1.09425	
207.594	1.23749	1.03112	
214.401	1.15042	0.952839	
221.207	1.08262	0.891327	
228.013	1.00168	0.819757	
234.82	0.951283	0.77388	
241.626	0.898015	0.726192	
248.432	0.837889	0.673538	
255.239	0.767721	0.613442	
262.045	0.748349	0.594398	
268.852	0.672118	0.530666	
275.658	0.618186	0.485161	
282.464	0.577951	0.45088	
289.271	0.544775	0.422462	
296.077	0.508175	0.391728	
302.883	0.461384	0.353547	
309.69	0.410013	0.312306	
316.496	0.379361	0.287232	
323.303	0.34219	0.257547	
330.109	0.306611	0.229394	
336.915	0.277629	0.206478	
343.722	0.237405	0.175507	
350.528	0.206429	0.151694	
357.334	0.185933	0.135818	
364.141	0.158537	0.115115	
370.947	0.14523	0.104824	
377.753	0.121678	0.0873025	
384.56	0.108999	0.0777381	
391.366	0.0892092	0.063243	
398.173	0.0780719	0.055018	
404.979	0.0649322	0.0454851	
411.785	0.0536094	0.0373292	
418.592	0.0433697	0.0300187	
425.398	0.0369014	0.0253901	
432.204	0.0313569	0.0214462	
439.011	0.0241157	0.0163977	
445.817	0.017945	0.0121271	
452.624	0.0163345	0.0109727	
459.43	0.0112083	0.00748408	
466.236	0.0095245	0.00632353	
473.043	0.00799852	0.00527753	
479.849	0.00517159	0.00339266	
486.655	0.00381732	0.00248932	
493.462	0.00294539	0.00190891	
500.268	0.00203854	0.00131363	
507.075	0.00166273	0.00106515	
513.881	0.00152117	0.000968037	
520.687	0.00153097	0.000968635	
527.494	0.00059542	0.000374783	
534.3	0.000110206	6.89142e-05	
541.106	8.45284e-05	5.25103e-05	
547.913	8.43676e-05	5.21397e-05	
554.719	0.000118452	7.27008e-05	
561.525	0.000113351	6.92103e-05	
568.332	0	0	
575.138	0	0	
581.945	0	0	
588.751	0	0	
595.557	0	0	
602.364	0	0	
609.17	0	0	
615.976	0	0	
622.783	0	0	
629.589	0	0	
636.396	0	0	
643.202	0	0	
650.008	0	0	
656.815	0	0	
663.621	0	0	
670.427	0	0	
